# Step     T (K)     E_KS (eV)    E_tot (eV)   Vol (A^3)    P (kBar)
     1      0.00  -16601.42116  -16601.34893     965.350     187.056
     2      0.13  -16601.93202  -16601.34316     967.490     177.145
     3      0.49  -16602.85737  -16601.31530     971.628     158.604
     4      0.96  -16604.03253  -16601.25674     977.497     133.501
     5      1.40  -16605.26658  -16601.16798     984.744     103.355
     6      1.69  -16606.37729  -16601.05372     992.965      69.838
     7      1.79  -16607.23636  -16600.92837    1001.739      35.649
     8      1.72  -16607.78487  -16600.80533    1010.672       3.013
     9      1.55  -16608.02657  -16600.69799    1019.432     -27.572
    10      1.40  -16607.99472  -16600.61010    1027.755     -56.205
    11      1.41  -16607.75646  -16600.55063    1035.444     -81.505
    12      1.65  -16607.38055  -16600.51562    1042.380    -103.461
    13      2.14  -16606.93290  -16600.50263    1048.504    -122.219
    14      2.82  -16606.46393  -16600.50534    1053.809    -137.942
    15      3.59  -16606.00807  -16600.51766    1058.328    -151.556
    16      4.37  -16605.58602  -16600.53388    1062.118    -163.029
    17      5.11  -16605.21168  -16600.55098    1065.253    -172.347
    18      5.80  -16604.89006  -16600.56558    1067.812    -179.933
    19      6.51  -16604.62171  -16600.57632    1069.878    -186.080
    20      7.36  -16604.40357  -16600.58232    1071.528    -191.024
    21      8.50  -16604.23128  -16600.58378    1072.834    -194.966
    22     10.18  -16604.09949  -16600.58098    1073.860    -198.046
    23     12.68  -16604.00290  -16600.57471    1074.660    -200.414
    24     16.36  -16603.93610  -16600.56611    1075.280    -202.154
    25     21.60  -16603.89240  -16600.55571    1075.758    -203.341
    26     28.83  -16603.86372  -16600.54364    1076.126    -204.074
    27     38.54  -16603.84055  -16600.52965    1076.407    -204.425
    28     51.39  -16603.81260  -16600.51307    1076.623    -204.476
    29     68.47  -16603.77229  -16600.49457    1076.789    -204.271
    30     91.67  -16603.71612  -16600.47543    1076.916    -203.809
    31    124.24  -16603.64714  -16600.45839    1077.013    -203.199
    32    171.39  -16603.57516  -16600.44769    1077.088    -202.429
    33    240.88  -16603.51324  -16600.44851    1077.147    -201.572
    34    343.23  -16603.47305  -16600.46878    1077.192    -200.544
    35    491.27  -16603.45488  -16600.51728    1077.228    -199.214
    36    698.28  -16603.44251  -16600.60394    1077.256    -197.491
    37    973.65  -16603.40274  -16600.73763    1077.278    -195.033
    38   1315.06  -16603.29562  -16600.92308    1077.297    -191.477
    39   1698.26  -16603.09617  -16601.15556    1077.312    -186.703
    40   2069.70  -16602.82003  -16601.41788    1077.326    -180.949
    41   2352.46  -16602.52825  -16601.67943    1077.337    -174.989
    42   2473.00  -16602.31183  -16601.90575    1077.348    -170.070
    43   2397.90  -16602.25157  -16602.07200    1077.359    -167.456
    44   2152.65  -16602.37474  -16602.16994    1077.369    -167.382
    45   1805.85  -16602.65085  -16602.21411    1077.380    -169.629
    46   1433.29  -16603.00855  -16602.22841    1077.392    -173.222
    47   1089.98  -16603.36425  -16602.23045    1077.406    -176.684
    48    802.80  -16603.65366  -16602.22786    1077.420    -179.613
    49    577.46  -16603.85401  -16602.22674    1077.436    -181.767
    50    407.93  -16603.96688  -16602.22755    1077.454    -182.938
    51    283.76  -16604.00353  -16602.22631    1077.473    -183.400
    52    194.47  -16603.98329  -16602.22024    1077.492    -183.389
    53    131.30  -16603.93061  -16602.20941    1077.509    -183.082
    54     87.52  -16603.87061  -16602.19552    1077.523    -182.769
    55     58.07  -16603.82425  -16602.18030    1077.529    -182.506
    56     39.06  -16603.80534  -16602.16509    1077.521    -182.381
    57     27.39  -16603.81963  -16602.15082    1077.491    -182.417
    58     20.60  -16603.86597  -16602.13804    1077.426    -182.553
    59     16.70  -16603.93923  -16602.12716    1077.312    -182.780
    60     14.26  -16604.03350  -16602.11858    1077.125    -183.054
    61     12.34  -16604.14530  -16602.11282    1076.839    -183.206
    62     10.47  -16604.27561  -16602.11061    1076.418    -183.125
    63      8.53  -16604.43015  -16602.11258    1075.818    -182.723
    64      6.67  -16604.61908  -16602.11976    1074.985    -181.804
    65      5.14  -16604.85494  -16602.13285    1073.855    -180.194
    66      4.18  -16605.15025  -16602.15222    1072.354    -177.732
    67      4.00  -16605.51467  -16602.17738    1070.399    -174.213
    68      4.66  -16605.95264  -16602.20734    1067.900    -169.283
    69      6.14  -16606.46026  -16602.23996    1064.766    -162.785
    70      8.33  -16607.02155  -16602.27056    1060.906    -154.403
    71     11.06  -16607.60852  -16602.29509    1056.246    -143.707
    72     14.16  -16608.17708  -16602.30768    1050.729    -130.563
    73     17.50  -16608.66764  -16602.30174    1044.337    -114.555
    74     20.96  -16609.01092  -16602.27207    1037.098     -95.937
    75     24.48  -16609.13121  -16602.21494    1029.103     -74.023
    76     27.98  -16608.96120  -16602.12871    1020.518     -49.641
    77     31.36  -16608.46697  -16602.01884    1011.588     -23.321
    78     34.42  -16607.66271  -16601.89425    1002.637       3.830
    79     36.83  -16606.62614  -16601.76818     994.049      31.061
    80     38.17  -16605.50386  -16601.65396     986.252      56.031
    81     38.06  -16604.50222  -16601.56592     979.672      76.583
    82     36.39  -16603.83608  -16601.51087     974.683      91.219
    83     33.64  -16603.67419  -16601.48499     971.561      98.337
    84     31.06  -16604.09187  -16601.47500     970.444      97.367
    85     30.68  -16605.04529  -16601.46118     971.312      88.755
    86     34.88  -16606.38699  -16601.42708     973.988      73.326
    87     45.68  -16607.90310  -16601.36528     978.167      52.299
    88     63.97  -16609.36463  -16601.27870     983.450      27.839
    89     88.85  -16610.58207  -16601.18327     989.404       2.106
    90    117.60  -16611.42275  -16601.09438     995.606     -23.355
    91    146.16  -16611.81745  -16601.02664    1001.683     -47.964
    92    170.09  -16611.75597  -16600.98431    1007.323     -70.373
    93    185.86  -16611.28604  -16600.96516    1012.295     -90.062
    94    191.97  -16610.49727  -16600.96304    1016.441    -106.995
    95    189.50  -16609.51118  -16600.97143    1019.669    -121.109
    96    182.01  -16608.46606  -16600.98505    1021.942    -132.300
    97    174.94  -16607.50170  -16601.00099    1023.270    -140.538
    98    174.39  -16606.73956  -16601.01741    1023.697    -145.976
    99    185.86  -16606.26573  -16601.03400    1023.298    -148.973
   100    213.01  -16606.11806  -16601.05134    1022.163    -149.679
   101    256.56  -16606.28038  -16601.07087    1020.392    -148.185
   102    313.75  -16606.68404  -16601.09440    1018.085    -144.469
   103    378.37  -16607.21689  -16601.12126    1015.339    -138.516
   104    441.62  -16607.74290  -16601.14679    1012.240    -130.574
   105    494.02  -16608.13751  -16601.16704    1008.859    -120.986
   106    528.62  -16608.33008  -16601.18234    1005.254    -109.940
   107    544.47  -16608.33687  -16601.19484    1001.467     -98.192
   108    548.08  -16608.26919  -16601.20869     997.530     -86.272
   109    551.39  -16608.29791  -16601.23093     993.467     -74.824
   110    566.23  -16608.58172  -16601.27071     989.295     -64.151
   111    598.00  -16609.18645  -16601.33598     985.025     -54.291
   112    641.82  -16610.04160  -16601.43022     980.665     -45.102
   113    683.75  -16610.95941  -16601.54876     976.217     -36.038
   114    706.99  -16611.71301  -16601.67880     971.675     -26.472
   115    700.07  -16612.13114  -16601.80037     967.034     -15.504
   116    662.20  -16612.16750  -16601.89424     962.285      -3.290
   117    602.49  -16611.91106  -16601.96486     957.425      10.632
   118    534.49  -16611.50521  -16602.02396     952.457      26.234
   119    471.68  -16611.08882  -16602.07001     947.397      42.628
   120    423.82  -16610.76984  -16602.09822     942.276      59.743
   121    394.70  -16610.59980  -16602.10758     937.141      77.109
   122    382.10  -16610.57417  -16602.10337     932.054      94.100
   123    379.01  -16610.63359  -16602.09063     927.093     110.827
   124    375.99  -16610.68082  -16602.06858     922.351     127.154
   125    364.68  -16610.62846  -16602.03549     917.939     141.834
   126    340.88  -16610.44141  -16601.98968     913.987     154.570
   127    305.59  -16610.18875  -16601.96181     910.651     164.038
   128    262.55  -16609.96398  -16601.95542     908.108     169.193
   129    217.08  -16609.87465  -16601.95728     906.546     168.921
   130    176.23  -16610.06539  -16601.97253     906.146     162.280
   131    146.34  -16610.65383  -16602.00575     907.066     148.486
   132    130.45  -16611.67070  -16602.05336     909.424     126.987
   133    127.49  -16613.03597  -16602.10662     913.266      98.179
   134    133.21  -16614.56801  -16602.15242     918.546      62.844
   135    142.16  -16616.02962  -16602.17777     925.108      23.131
   136    149.46  -16617.19052  -16602.17513     932.683     -18.993
   137    151.63  -16617.86975  -16602.14153     940.898     -62.288
   138    147.06  -16617.96393  -16602.07058     949.285    -104.880
   139    136.15  -16617.49951  -16601.97097     957.305    -144.006
   140    120.92  -16616.61356  -16601.85248     964.397    -178.361
   141    104.15  -16615.52281  -16601.72947     970.009    -207.442
   142     88.75  -16614.47896  -16601.61129     973.646    -229.592
   143     77.21  -16613.72802  -16601.51003     974.920    -244.723
   144     71.35  -16613.44455  -16601.42175     973.585    -252.672
   145     72.10  -16613.71145  -16601.33925     969.561    -253.288
   146     79.44  -16614.50143  -16601.25186     962.944    -246.286
   147     92.38  -16615.68649  -16601.15151     953.998    -232.069
   148    108.90  -16617.06578  -16601.03545     943.127    -211.275
   149    126.07  -16618.40827  -16600.90666     930.832    -184.503
   150    140.31  -16619.50442  -16600.77552     917.660    -152.843
   151    147.87  -16620.19133  -16600.64362     904.160    -117.215
   152    145.74  -16620.39884  -16600.51603     890.844     -79.520
   153    132.74  -16620.15545  -16600.39127     878.150     -41.659
   154    110.42  -16619.57617  -16600.26398     866.423      -4.468
   155     83.48  -16618.84221  -16600.12929     855.912      30.294
   156     59.22  -16618.16957  -16599.98371     846.768      60.278
   157     45.83  -16617.75618  -16599.82757     839.043      85.153
   158     49.75  -16617.72110  -16599.65844     832.705     104.539
   159     73.01  -16618.09239  -16599.49276     827.660     118.583
   160    111.39  -16618.76411  -16599.33039     823.773     127.904
   161    154.67  -16619.54556  -16599.17352     820.887     133.043
   162    189.28  -16620.21527  -16599.01765     818.841     134.797
   163    202.90  -16620.59633  -16598.85012     817.483     133.885
   164    189.30  -16620.62005  -16598.65351     816.675     130.536
   165    151.26  -16620.35222  -16598.41261     816.298     124.928
   166    100.26  -16619.96940  -16598.12030     816.247     117.409
   167     53.20  -16619.69696  -16597.78278     816.433     107.952
   168     27.57  -16619.73272  -16597.42282     816.781      97.005
   169     36.89  -16620.17964  -16597.07788     817.226      85.167
   170     86.99  -16621.00301  -16596.79419     817.716      73.309
   171    173.47  -16622.02031  -16596.61553     818.214      62.311
   172    280.59  -16622.92730  -16596.56917     818.694      53.309
   173    383.57  -16623.37022  -16596.65089     819.139      47.202
   174    456.58  -16623.07226  -16596.82050     819.543      44.439
   175    485.17  -16621.97298  -16597.01427     819.904      44.621
   176    478.63  -16620.34807  -16597.19100     820.226      45.989
   177    474.69  -16618.80118  -16597.36060     820.510      46.776
   178    528.55  -16618.06142  -16597.58980     820.762      45.241
   179    686.81  -16618.63750  -16597.98345     820.985      40.160
   180    955.87  -16620.49574  -16598.63509     821.184      32.560
   181   1281.44  -16622.97252  -16599.56126     821.363      24.153
   182   1559.17  -16625.04245  -16600.66210     821.527      17.184
   183   1684.30  -16625.82831  -16601.74759     821.681      12.958
   184   1612.07  -16625.09087  -16602.69419     821.830      10.113
   185   1383.47  -16623.19699  -16603.39122     821.979       7.743
   186   1091.57  -16620.95867  -16603.88275     822.132       4.140
   187    826.28  -16619.10541  -16604.18842     822.291      -1.216
   188    641.03  -16618.16652  -16604.38950     822.460      -7.582
   189    545.11  -16618.27893  -16604.54393     822.639     -14.744
   190    515.61  -16619.23023  -16604.68981     822.828     -21.940
   191    513.84  -16620.56132  -16604.83562     823.025     -28.353
   192    501.09  -16621.72091  -16604.95981     823.225     -33.399
   193    452.83  -16622.26516  -16605.02861     823.419     -36.734
   194    365.98  -16622.00132  -16605.01240     823.592     -38.589
   195    256.40  -16621.02571  -16604.90207     823.725     -39.568
   196    148.94  -16619.64384  -16604.71065     823.789     -40.605
   197     66.33  -16618.22948  -16604.46470     823.746     -42.493
   198     21.81  -16617.09844  -16604.19744     823.546     -45.797
   199     16.54  -16616.42234  -16603.93982     823.129     -50.272
   200     40.92  -16616.20247  -16603.71315     822.422     -55.897
   201     79.01  -16616.30841  -16603.52640     821.342     -62.063
   202    114.13  -16616.55546  -16603.37799     819.793     -67.486
   203    134.00  -16616.78674  -16603.26120     817.669     -71.401
   204    133.59  -16616.92551  -16603.16762     814.856     -72.666
   205    115.40  -16616.99032  -16603.08993     811.240     -70.446
   206     87.64  -16617.07464  -16603.02221     806.715     -63.533
   207     61.06  -16617.30330  -16602.95997     801.200     -51.659
   208     45.81  -16617.77770  -16602.89867     794.653     -33.409
   209     49.02  -16618.53440  -16602.83557     787.095      -9.200
   210     73.48  -16619.52497  -16602.77234     778.617      21.280
   211    117.19  -16620.60988  -16602.71132     769.397      58.039
   212    173.44  -16621.57594  -16602.64457     759.698      99.744
   213    231.72  -16622.22575  -16602.58952     749.862     143.627
   214    279.67  -16622.37925  -16602.53289     740.292     187.468
   215    306.23  -16621.94661  -16602.45656     731.433     229.483
   216    305.38  -16621.00383  -16602.36189     723.768     263.282
   217    278.84  -16619.78133  -16602.25454     717.771     283.850
   218    236.13  -16618.60227  -16602.15262     713.855     288.353
   219    191.50  -16617.76665  -16602.07349     712.320     274.709
   220    158.93  -16617.42211  -16602.02378     713.280     243.035
   221    147.33  -16617.47296  -16601.99007     716.607     195.576
   222    157.94  -16617.61082  -16601.95391     721.892     136.377
   223    184.65  -16617.45671  -16601.89780     728.455      73.717
   224    216.89  -16616.75426  -16601.81714     735.439      13.956
   225    243.62  -16615.47861  -16601.71776     741.911     -37.861
   226    256.73  -16613.83984  -16601.60609     746.959     -77.472
   227    252.82  -16612.22904  -16601.51455     749.792    -101.581
   228    231.73  -16611.01422  -16601.45648     749.826    -108.730
   229    195.90  -16610.42365  -16601.44629     746.785     -97.468
   230    151.65  -16610.45723  -16601.46394     740.780     -67.873
   231    108.34  -16610.93401  -16601.48656     732.334     -20.870
   232     76.73  -16611.58594  -16601.48443     722.361      40.971
   233     66.72  -16612.24335  -16601.44950     712.073     110.039
   234     83.41  -16612.92009  -16601.39880     702.738     178.498
   235    122.40  -16613.70137  -16601.36468     695.444     236.588
   236    167.44  -16614.49262  -16601.35586     690.862     279.452
   237    195.34  -16614.94989  -16601.35846     689.189     305.096
   238    188.99  -16614.72083  -16601.33222     690.216     314.900
   239    151.21  -16613.86729  -16601.27087     693.487     311.935
   240    107.44  -16612.95704  -16601.18381     698.458     298.222
   241     93.34  -16612.80108  -16601.09892     704.595     274.195
   242    132.79  -16613.93241  -16601.03079     711.409     242.677
   243    221.10  -16616.23192  -16600.97554     718.513     207.015
   244    326.45  -16619.00034  -16600.92929     725.636     171.469
   245    408.10  -16621.37658  -16600.89004     732.633     139.540
   246    438.78  -16622.79475  -16600.86363     739.476     113.321
   247    415.74  -16623.13363  -16600.83936     746.220      92.820
   248    359.76  -16622.67797  -16600.80502     752.980      75.567
   249    304.70  -16621.95159  -16600.75967     759.878      59.334
   250    283.27  -16621.49241  -16600.72604     767.002      41.207
   251    316.27  -16621.65945  -16600.73144     774.366      20.625
   252    405.73  -16622.53588  -16600.81426     781.909      -2.337
   253    532.82  -16623.86773  -16600.96921     789.504     -26.873
   254    661.53  -16625.21142  -16601.19393     796.988     -50.365
   255    749.55  -16626.06144  -16601.45004     804.198     -71.577
   256    765.60  -16626.04958  -16601.67085     810.983     -88.858
   257    706.29  -16625.19807  -16601.85691     817.217    -101.275
   258    591.03  -16623.72272  -16601.97420     822.818    -109.344
   259    453.34  -16622.01717  -16602.02556     827.703    -113.457
   260    333.23  -16620.56660  -16602.02092     831.802    -114.186
   261    261.41  -16619.78110  -16601.99650     835.079    -111.481
   262    249.74  -16619.82362  -16601.97996     837.561    -105.377
   263    289.37  -16620.56672  -16601.98624     839.353     -95.941
   264    356.17  -16621.67536  -16602.02211     840.654     -82.343
   265    418.95  -16622.74291  -16602.09167     841.756     -65.741
   266    449.75  -16623.40161  -16602.15661     843.038     -47.542
   267    434.85  -16623.54452  -16602.22177     844.938     -29.983
   268    377.54  -16623.25856  -16602.25854     847.907     -17.110
   269    295.16  -16622.81098  -16602.27168     852.330     -11.803
   270    211.40  -16622.44686  -16602.26940     858.408     -16.647
   271    145.53  -16622.18498  -16602.23313     865.997     -30.018
   272    106.56  -16621.83315  -16602.12829     874.569     -48.601
   273     94.25  -16621.23326  -16602.00115     883.296     -66.297
   274    101.18  -16620.25387  -16601.86960     891.205     -78.457
   275    115.36  -16618.89304  -16601.70993     897.308     -80.756
   276    127.12  -16617.49223  -16601.56237     900.865     -70.784
   277    132.74  -16616.46716  -16601.48719     901.666     -49.248
   278    131.57  -16615.93142  -16601.45429     900.044     -18.176
   279    125.12  -16615.77332  -16601.42627     896.816      18.348
   280    116.50  -16615.77721  -16601.38072     893.182      54.930
   281    108.68  -16615.75811  -16601.30914     890.558      86.061
   282    103.18  -16615.71233  -16601.23582     890.358     105.232
   283    100.44  -16615.77922  -16601.18118     893.722     106.069
   284     99.96  -16616.03621  -16601.11544     901.262      86.973
   285    100.83  -16616.43752  -16601.04117     912.923      48.746
   286    102.50  -16616.72873  -16600.97160     927.887      -2.070
   287    104.73  -16616.55972  -16600.91626     944.776     -57.613
   288    107.50  -16615.74912  -16600.89037     961.992    -109.708
